Tensao [V];Corrente [A]
-5;-0.0001529048
-4.95;-0.0001395081
-4.9;-0.0001346373
-4.85;-0.0001310927
-4.8;-0.0001279205
-4.75;-0.0001259436
-4.7;-0.0001244237
-4.65;-0.0001227788
-4.6;-0.0001207735
-4.55;-0.0001190295
-4.5;-0.0001178271
-4.45;-0.0001163404
-4.4;-0.0001143217
-4.35;-0.0001132063
-4.3;-0.0001122932
-4.25;-0.0001112428
-4.2;-0.0001100674
-4.15;-0.0001089998
-4.1;-0.0001081075
-4.05;-0.0001066979
-4;-0.0001092155
-3.95;-0.0001081848
-3.9;-0.0001067494
-3.85;-0.000104673
-3.8;-0.0001023811
-3.75;-0.0001007755
-3.7;-9.970544E-05
-3.65;-9.813654E-05
-3.6;-9.611419E-05
-3.55;-9.405262E-05
-3.5;-9.251439E-05
-3.45;-9.136097E-05
-3.4;-9.026643E-05
-3.35;-8.868654E-05
-3.3;-8.818042E-05
-3.25;-8.798182E-05
-3.2;-8.673643E-05
-3.15;-8.506469E-05
-3.1;-8.405718E-05
-3.05;-8.359018E-05
-3;-8.319306E-05
-2.95;-8.143058E-05
-2.9;-8.000269E-05
-2.85;-7.915327E-05
-2.8;-7.896202E-05
-2.75;-7.6735E-05
-2.7;-7.497617E-05
-2.65;-7.465992E-05
-2.6;-7.419661E-05
-2.55;-7.296606E-05
-2.5;-7.22686E-05
-2.45;-7.219383E-05
-2.4;-7.112634E-05
-2.35;-6.887842E-05
-2.3;-6.758651E-05
-2.25;-6.618189E-05
-2.2;-6.553963E-05
-2.15;-6.421102E-05
-2.1;-6.285048E-05
-2.05;-6.192147E-05
-2;-6.208808E-05
-1.95;-6.213963E-05
-1.9;-5.92752E-05
-1.85;-5.578814E-05
-1.8;-5.43602E-05
-1.75;-5.413349E-05
-1.7;-5.269822E-05
-1.65;-5.207922E-05
-1.6;-5.137695E-05
-1.55;-4.867799E-05
-1.5;-4.708459E-05
-1.45;-4.878705E-05
-1.4;-4.612976E-05
-1.35;-4.392725E-05
-1.3;-4.326784E-05
-1.25;-4.237185E-05
-1.2;-4.023796E-05
-1.15;-3.951117E-05
-1.1;-3.864949E-05
-1.05;-3.680486E-05
-1;-3.301503E-05
-0.95;-2.855969E-05
-0.9;-2.542685E-05
-0.85;-2.45652E-05
-0.8;-2.241047E-05
-0.75;-1.958283E-05
-0.7;-1.450115E-05
-0.65;-9.914675E-06
-0.6;1.111556E-06
-0.55;2.030854E-05
-0.5;5.757736E-05
-0.45;0.0001288987
-0.4;0.0002532711
-0.35;0.0004648721
-0.3;0.0007929799
-0.25;0.001278557
-0.2;0.001981387
-0.15;0.00338109
-0.1;0.004426178
-0.05;0.006196108
0;0.008813934
0.05;0.0106639
0.1;0.01291998
0.15;0.01520037
0.2;0.01743685
0.25;0.01963084
0.3;0.02287453
0.35;0.02496597
0.4;0.02703436
0.45;0.02909534
0.5;0.03113173
0.55;0.03312939
0.6;0.03507751
0.65;0.03699982
0.7;0.03887003
0.75;0.04069679
0.8;0.04246497
0.85;0.04418163
0.9;0.04586256
0.95;0.04747551
1;0.04903566
1.05;0.0505409
1.1;0.05198882
1.15;0.05338071
1.2;0.05470271
1.25;0.05597234
1.3;0.05719003
1.35;0.05835474
1.4;0.05946244
1.45;0.06051759
1.5;0.06152827
1.55;0.06249329
1.6;0.06341237
1.65;0.06429025
1.7;0.06512838
1.75;0.06592068
1.8;0.06667408
1.85;0.06739252
1.9;0.06807849
1.95;0.0687331
2;0.06936967
2.05;0.069974
2.1;0.0705578
2.15;0.07112077
2.2;0.07166179
2.25;0.07218031
2.3;0.07268179
2.35;0.07316988
2.4;0.07364493
2.45;0.07410006
2.5;0.07455037
2.55;0.07497294
2.6;0.07539618
2.65;0.07580137
2.7;0.07619681
2.75;0.07658375
2.8;0.07695299
2.85;0.07731076
2.9;0.077658
2.95;0.07799132
3;0.0783189
3.05;0.0786211
3.1;0.07891334
3.15;0.07919372
3.2;0.07946205
3.25;0.07972469
3.3;0.07997902
3.35;0.08021892
3.4;0.08046145
3.45;0.08068796
3.5;0.08091787
3.55;0.0811364
3.6;0.08135112
3.65;0.08157294
3.7;0.08178763
3.75;0.08200671
3.8;0.0822124
3.85;0.08243427
3.9;0.08264914
3.95;0.08286145
4;0.08308669
4.05;0.08331683
4.1;0.08354588
4.15;0.08376799
4.2;0.08399361
4.25;0.08421382
4.3;0.08443556
4.35;0.08465337
4.4;0.08487579
4.45;0.08509804
4.5;0.08531896
4.55;0.0855384
4.6;0.08576286
4.65;0.08598173
4.7;0.08619508
4.75;0.08641396
4.8;0.08663242
4.85;0.08684188
4.9;0.08704852
4.95;0.08725427
5;0.08745822
